#
#--------------------------------------------
# ARGUMENTS
#--------------------------------------------
#  ARG0000: ./../hst1pass.e
#  ARG0001: HMIN=5
#  ARG0002: FMIN=1000.0
#  ARG0003: PMAX=66000.0
#  ARG0004: PERT=2
#  ARG0005: OUT=xympqks
#  ARG0006: PSF=./../psfs/STDPSF_WFC3UV_F606W.fits
#  ARG0007: id8048dyq_flc.fits
#
#=================================
# WFC3/UVIS POSTFLASH INFO
#
# FLSHCORR: 'COMPLETE'
# FLASHDUR:                  3.1               3.10
# FLASHLVL:                    8               8.00
# FLASHLVL:                    8               8.00
# FLASHCUR: 'LOW    '                           L
# SHUTRPOS: 'A    '                             A
# DARKTIME:           113.699296             113.70
# DARKEST :                                    1.06 2018.50
#
#
#================================
# BASIC STAR-FINDING PARAMETERS
#
# FILENAME: id8048dyq_flc.fits
#   NAXIS1:  4096
#   NAXIS2:  4096
#
#   CRPIX1:    2048.0000000000000000000000
#   CRPIX2:    1026.0000000000000000000000
#   CRVAL1:     201.5364272924400097508624
#   CRVAL2:     -47.6336630203250024351291
#    CD1_1:      -0.0000062738011073863172
#    CD1_2:      -0.0000090938958797745577
#    CD2_1:      -0.0000090938958797745577
#    CD2_2:       0.0000062738011073863172
#
#     HMIN:          5
#     PMAX:      66000.0
#     FMIN:       1000.0      1000.0
#   PIXFIT: 5x5
# HISTMODE:          7.3
# HIFLAG  :      64000
# HIFLAG_I:      64000
# LOFLAG_I:        -50
# DOAPPHOT:          F
#      PID:      14662
#     FILT:      F606W
#    EXPTI:        104.0000
#    EXPTE:        104.0000
#     rDAT:       2018.49721527
#  TIMESTR:      '11:37:29'
#  DATESTR:      '2018-06-30'
# APERTURE:      'UVIS-CENTER     '
#     GAIN:          0.00
#
#  PSF_INP: ./../psfs/STDPSF_WFC3UV_F606W.fits
#  PSF_USE: id8048dyq_psf.fits
#   NPERTs:    2
#
#  GDC_INP: NONE
#
#
#================================
# PSF INFO
#
# PSFFILE_USE: id8048dyq_psf.fits
#
#      CENTRAL PIXEL ARRAY
#                           0000    0682    1365    2048    2731    3413    4096
#                             01      02      03      04      05      06      07
#               4096 08   0.1297  0.1401  0.1455  0.1457  0.1466  0.1466  0.1445
#               3413 07   0.1365  0.1417  0.1433  0.1438  0.1445  0.1434  0.1432
#               2731 06   0.1411  0.1440  0.1427  0.1413  0.1438  0.1421  0.1397
#               2049 05   0.1408  0.1449  0.1427  0.1391  0.1439  0.1426  0.1381
#               2048 04   0.1389  0.1480  0.1484  0.1399  0.1452  0.1489  0.1462
#               1365 03   0.1403  0.1429  0.1399  0.1388  0.1483  0.1477  0.1442
#               0682 02   0.1377  0.1370  0.1329  0.1413  0.1618  0.1458  0.1353
#               0000 01   0.1301  0.1337  0.1316  0.1500  0.1727  0.1432  0.1275
#
# CENTRAL PERT PSF:
#      02  -0.0407 -0.0495
#      01  -0.0505 -0.0558
#
# CENTRAL PSFFILE_INP: ./../psfs/STDPSF_WFC3UV_F606W.fits
#                 0000    0682    1365    2048    2731    3413    4096
#                   01      02      03      04      05      06      07
#     4096 08   0.1704  0.1823  0.1891  0.1908  0.1932  0.1946  0.1940
#     3413 07   0.1788  0.1854  0.1883  0.1903  0.1924  0.1926  0.1938
#     2731 06   0.1851  0.1893  0.1892  0.1891  0.1929  0.1924  0.1913
#     2049 05   0.1864  0.1917  0.1907  0.1883  0.1942  0.1940  0.1907
#     2048 04   0.1845  0.1948  0.1963  0.1891  0.1955  0.2004  0.1989
#     1365 03   0.1876  0.1912  0.1892  0.1892  0.1998  0.2003  0.1979
#     0682 02   0.1866  0.1868  0.1838  0.1931  0.2145  0.1995  0.1900
#     0000 01   0.1806  0.1851  0.1839  0.2031  0.2268  0.1980  0.1833
#
# CENTRAL  DIFFERENCE
#                 0000    0682    1365    2048    2731    3413    4096
#                   01      02      03      04      05      06      07
#     4096 08   0.0407  0.0422  0.0436  0.0451  0.0466  0.0481  0.0495
#     3413 07   0.0423  0.0437  0.0451  0.0465  0.0478  0.0492  0.0506
#     2731 06   0.0440  0.0452  0.0465  0.0478  0.0491  0.0503  0.0516
#     2049 05   0.0456  0.0468  0.0480  0.0491  0.0503  0.0515  0.0526
#     2048 04   0.0456  0.0468  0.0480  0.0491  0.0503  0.0515  0.0526
#     1365 03   0.0473  0.0483  0.0494  0.0505  0.0515  0.0526  0.0537
#     0682 02   0.0489  0.0499  0.0508  0.0518  0.0528  0.0537  0.0547
#     0000 01   0.0505  0.0514  0.0523  0.0531  0.0540  0.0549  0.0557
#
#
#=================================
# FRAME INFO
#
#      WCSMODE: AUTO
#     TARGNAME: NGC-5139-HSSB
#     RA_TARG :   2.013959166667E+02
#     DEC_TARG:  -4.756673611111E+01
#        INSTu:     8
#     PLATESCL:   40.000 mas/pix
#
#        INST1:       2048.00     -0.00000627 -0.00000909       201.5364273  13:26:08.74
#            2:       1026.00     -0.00000909  0.00000627       -47.6336630 -47:38:01.18       39.773
#        -----     ----------     ----------- -----------      ------------ ------------     ---------
#        FRAME         CRPIX         CD_1        CD_2           RADEC(DEG)  RADEC(SEXIG)     (mas/pix)
#        -----     ----------     ----------- -----------      ------------ ------------     ---------
#        DEST1:          0.00     -0.00001111  0.00000000       201.3959167  13:25:35.02       40.000
#            2:          0.00      0.00000000  0.00001111       -47.5667361 -47:34:00.25
#
#
#=======================================
# FINDING STATISTICS
#
#  WHY    NPIX      %PIX   EXPLANATION
#  --- --------  -------   -------------
#   1    32688    0.195%   ..1..not on chip....
#   2 14898577   88.802%   ..2..not loc max....
#   3  1550369    9.241%   ..3..h < hmax.......
#   4   206222    1.229%   ..4..flux too low...
#   5        0    0.000%   ..5..below mask thr.
#   6        0    0.000%   ..6..out of bounds..
#   7       14    0.000%   ..7..loflag issues..
#   8        0    0.000%   ..8..saturated......
#   9       16    0.000%   ..9..not contig sat.
#  10        0    0.000%   .10..not loc sat max
#  11        0    0.000%   .11..sat weirdness..
#  12     5108    0.030%   .12..pk but not qsel
#  13        0    0.000%   .13..pk too peaky...
#  14        5    0.000%   .14..satd CR........
#  15     2344    0.014%   .15..good unsat.....
#  16       53    0.000%   .16..good satd......
#
#
#=======================================
# LUMINOSITY FUNCTION EXTRACTED
#
#    MAG   LFe    CUMe      LFe/s CUMe/s
#-------- -----  ------   ------- ------
# LF -18      2      2          0      0
# LF -17      5      7          0      0
# LF -16     20     27          0      0
# LF -15     15     42          0      0
# LF -14     48     90          0      0
# LF -13    170    260          1      1
# LF -12    442    702          6      7
# LF -11    627   1329         20     27
# LF -10    755   2084         13     40
# LF  -9    313   2397         47     87
# LF  -8      0   2397        160    247
# LF  -7      0   2397        433    680
# LF  -6      0   2397        615   1295
# LF  -5      0   2397        753   2048
# LF  -4      0   2397        349   2397
# LF  -3      0   2397          0   2397
# LF  -2      0   2397          0   2397
# LF  -1      0   2397          0   2397
#-------- -----  ------   ------- ------
#
#
#=====================================
# BOUNDARY INFO   INST=8 Ks=2
#
# -----------     ------------- -------------     ------------- -------------     ------------- -------------     ------------- -------------
#     SYS CHP         P1a           P1b               P2a           P2b               P3a           P3b               P4a           P4b
# -----------     ------------- -------------     ------------- -------------     ------------- -------------     ------------- -------------
# BDRY_xy_K1:         1.0000000  2052.0000000      4095.0000000  2052.0000000      4095.0000000  4095.0000000         1.0000000  4095.0000000
# BDRY_uv_K1:         1.0000000  2052.0000000      4095.0000000  2052.0000000      4095.0000000  4095.0000000         1.0000000  4095.0000000
# BDRY_rd_K1:       201.5416367   -47.6086108       201.5035159   -47.6458366       201.4759539   -47.6330080       201.5140850   -47.5957914
# BDRY_UV_K1:         1.0000000  2052.0000000      4095.0000000  2052.0000000      4095.0000000  4095.0000000         1.0000000  4095.0000000
# -----------     ------------- -------------     ------------- -------------     ------------- -------------     ------------- -------------
# BDRY_xy_K2:         1.0000000     1.0000000      4095.0000000     1.0000000      4095.0000000  2045.0000000         1.0000000  2045.0000000
# BDRY_uv_K2:         1.0000000     1.0000000      4095.0000000     1.0000000      4095.0000000  2045.0000000         1.0000000  2045.0000000
# BDRY_rd_K2:       201.5693099   -47.6214738       201.5311994   -47.6587088       201.5036103   -47.6458805       201.5417311   -47.6086547
# BDRY_UV_K2:         1.0000000     1.0000000      4095.0000000     1.0000000      4095.0000000  2045.0000000         1.0000000  2045.0000000
# -----------     ------------- -------------     ------------- -------------     ------------- -------------     ------------- -------------
#
#
#===================================================
#  FILEOUT: id8048dyq_flc.xympqks                                                           
#---------------------------------------------------
# (01)  x -- raw detector x pos    c002-c010    F004
# (02)  y -- raw detector y pos    c012-c020    F005
# (03)  m -- instl mag             c022-c028    F006
# (04)  p -- peak pixel value      c030-c037    F018
# (05)  q -- quality of fit        c039-c043    F019
# (06)  k -- chip number           c045-c045    F023
# (07)  s -- sky value             c047-c052    F025
#---------------------------------------------------
#
#  (01)      (02)     (03)     (04)   (05)     (07)   
#
#....x.... ....y.... ...m... ....p... ..q.. k ...s..  
#
 1067.8081    6.5112 -11.128  3065.97 0.030 2   8.40
 1792.0000    7.0000 -12.165 73431.69 0.000 2  41.15
 3260.1680    7.6961  -9.358   713.62 0.069 2   6.62
  839.1837   10.9046 -11.398  4825.74 0.038 2   9.58
 2359.5090   11.7534 -10.092  1249.06 0.049 2   9.21
 2650.9031   13.4287 -10.141  1450.06 0.077 2   8.68
 1114.5079   21.7780  -9.405   684.39 0.071 2   9.20
 1442.3551   23.4101  -9.554   701.54 0.043 2   5.67
 1683.9167   22.9344 -12.574 13823.05 0.036 2  15.14
 3162.6279   23.4461  -9.797   909.93 0.053 2   6.21
 3664.4087   22.7562  -9.341   630.19 0.073 2   6.42
 3718.6421   22.6374  -9.124   466.62 0.065 2   8.26
 2993.7874   30.2754 -14.151 58912.38 0.057 2  28.57
 3932.6064   29.6676  -9.369   596.45 0.081 2   6.62
 1286.7361   32.5078 -13.276 21134.07 0.023 2  16.40
  929.7806   33.3254 -12.672 14191.36 0.032 2  16.36
  283.2660   34.3198 -15.719 81631.52 0.000 2  91.85
 1930.7463   35.2828 -13.597 32926.30 0.046 2  17.37
 2659.9541   37.1858  -9.681  1113.06 0.081 2  10.01
 2558.8406   38.1521 -10.546  2423.97 0.062 2   7.29
 2970.5979   40.6844 -12.017  7224.42 0.046 2  14.01
 2045.5315   42.0924 -11.130  3211.62 0.054 2   9.01
 3484.7539   42.5120  -9.601   759.31 0.063 2   6.63
  803.3533   45.0359 -10.603  2198.10 0.048 2   8.25
    9.5866   49.7274  -9.177   544.57 0.113 2   8.76
  299.6850   50.2707  -9.942  1105.55 0.067 2  28.32
 3167.0527   50.1473  -9.385   786.29 0.087 2  10.06
 2520.5547   55.7217  -9.564   733.06 0.069 2   7.67
 4084.3757   56.2081 -12.124  8105.03 0.063 2  10.13
 3069.5088   57.5817 -11.233  3238.44 0.047 2   8.49
  559.0201   60.8398 -11.208  4244.49 0.047 2   8.21
 1241.7428   60.5610 -14.300 55280.03 0.022 2  29.08
 2746.3794   62.7150 -11.557  5237.85 0.068 2  10.10
 2048.2129   64.3048 -10.560  2103.34 0.057 2   8.14
  911.0914   64.5154 -13.016 18216.32 0.026 2  13.52
 2226.2507   66.6378 -11.022  3136.67 0.069 2   8.76
 2278.8181   68.4173  -9.079   529.79 0.091 2   8.09
 2352.3052   67.8909 -11.854  7525.43 0.038 2  12.66
 1693.3430   69.2192 -12.235  8732.70 0.040 2  14.01
  731.9396   73.6074 -12.537 12454.20 0.039 2  15.05
 3857.4775   75.0844 -10.041  1099.73 0.065 2   8.04
 2401.2671   76.5373 -12.271  9664.07 0.041 2  19.17
 3182.5920   76.8041  -9.706   885.43 0.050 2   9.05
 1935.3921   78.7938 -12.520 12274.81 0.032 2  14.71
  189.7013   79.7764 -10.050  1286.03 0.062 2   6.68
  742.2336   80.3158 -10.660  2243.11 0.042 2  12.11
 2487.3586   81.0261 -11.644  6056.53 0.045 2  13.30
 3505.4534   81.3427 -10.336  1383.07 0.038 2   7.23
 4019.5769   81.9264 -10.570  1882.22 0.051 2   6.09
 3800.6345   83.6270 -10.827  2242.11 0.043 2  10.36
  871.1464   85.5938 -11.910  6891.13 0.035 2  10.36
 3430.0186   85.7931  -9.509   887.37 0.070 2   8.98
 2670.8230   88.6130 -11.625  5560.97 0.055 2   9.62
 2943.6689   88.6502 -10.284  1534.22 0.051 2   8.85
 1688.8816   89.8611 -10.000  1321.42 0.044 2   7.16
  670.8537   90.6303 -10.420  1778.65 0.067 2   8.75
 3061.4211   91.0039 -11.630  5590.30 0.042 2   9.99
  619.8818   98.2931 -10.156  1465.71 0.052 2   6.66
 3907.4275   98.6150 -10.905  2439.37 0.035 2   8.48
 2426.8010  101.7205 -15.733 76731.82 0.000 2  94.75
 3233.2351  102.2117 -14.858 75947.09 0.000 2  50.68
 2152.8877  105.6261 -11.333  3971.63 0.081 2   9.82
  682.3518  109.3901  -9.449   643.55 0.066 2   6.59
 1194.1233  109.9570  -9.718   985.25 0.072 2   8.74
  415.9526  113.0550 -11.240  4489.67 0.050 2   6.40
   68.5313  113.9361 -10.640  2152.33 0.075 2   6.90
 3396.7283  116.5105  -9.722   817.92 0.054 2   7.66
 3797.3523  116.9758 -10.509  1952.44 0.049 2   8.96
 2954.3445  118.2287  -9.374   683.40 0.091 2   7.03
 3108.5273  119.4503  -9.650   772.00 0.057 2   7.80
  572.3320  122.5803 -11.825  6161.10 0.039 2  10.86
 1350.5359  125.2194  -9.615   797.49 0.043 2  12.48
 2143.9558  126.7676  -9.524   839.52 0.073 2   8.55
 2206.8853  129.9290  -9.529   942.70 0.060 2   5.88
  902.6658  132.4310 -10.430  1659.48 0.031 2   6.27
 1212.1075  131.6497  -9.912  1122.57 0.044 2   8.22
 1349.4047  133.5779 -11.589  4613.73 0.038 2  10.17
  228.7412  135.8913 -10.262  1652.68 0.065 2   8.08
 1187.3181  135.9879 -13.129 21676.56 0.021 2  15.37
 1948.1089  140.2805 -10.455  1864.47 0.057 2   9.02
 1912.0361  140.7086  -9.417   759.47 0.076 2   8.34
 1551.2207  144.3922  -9.980  1048.75 0.050 2   6.93
 3884.1604  145.6290 -12.618 13411.09 0.038 2  15.44
 1310.6208  147.0834 -12.613 13022.71 0.023 2  15.65
 3751.9888  149.0836  -9.820  1019.47 0.115 2  25.21
  655.4065  151.9990  -9.461   768.12 0.069 2   9.13
  363.1272  153.4224 -11.095  3179.18 0.058 2   7.38
 3742.6836  154.6489 -14.312 57739.27 0.026 2  27.17
 3266.3367  156.2582 -10.728  2304.16 0.041 2  10.07
 3708.9773  156.6411 -12.458 11875.58 0.036 2  15.99
  135.3811  163.3170  -9.278   590.10 0.093 2   8.17
 1425.6724  163.6875 -10.769  2245.29 0.031 2   8.17
 3851.8564  163.9607 -10.733  2610.95 0.044 2  10.58
 1504.2180  165.9265 -10.855  2731.86 0.052 2   9.38
 2626.2419  169.1337 -10.291  1853.81 0.058 2   6.38
 2675.8918  169.0533 -10.643  2652.17 0.066 2   9.75
 3881.7756  171.0675 -10.667  2386.64 0.046 2  12.40
 3938.3376  170.5966 -10.857  2473.33 0.050 2   9.08
 1095.0933  172.2333  -9.716   995.28 0.041 2   7.00
 3246.7607  172.1440 -10.016  1373.78 0.063 2   8.37
 3240.9961  173.1029  -9.698   991.28 0.107 2   7.77
 1628.1694  173.6040  -9.683   899.86 0.059 2   7.63
 1217.3264  175.4062  -9.997  1005.98 0.044 2   9.66
 2699.2563  174.6647 -10.773  2644.73 0.058 2  10.16
 3182.6746  175.4889  -9.979  1080.15 0.065 2   8.30
 3900.8162  177.5577 -11.521  4458.41 0.037 2  12.26
 1084.9087  183.4646  -9.246   607.08 0.057 2   6.15
 2358.8972  183.3866 -10.762  2561.22 0.045 2   7.91
  828.3491  184.8345  -9.758   934.40 0.059 2   7.30
  589.2665  188.0032 -10.782  2729.09 0.046 2   8.67
  899.2934  188.2813 -11.262  3754.96 0.038 2   9.79
  125.7686  191.1879 -11.553  5531.39 0.058 2   8.11
 2630.0823  191.1267  -9.637  1091.67 0.073 2   7.51
 1191.0693  192.3228 -11.482  4719.67 0.028 2   9.70
  324.5235  193.5302 -11.620  4605.56 0.042 2  11.09
  753.6114  195.1621  -9.123   552.53 0.085 2   8.14
 3603.0164  204.7477 -10.130  1537.95 0.048 2   8.24
 2275.4883  205.8133 -13.611 27512.92 0.173 2  20.15
  826.7498  208.7677 -10.666  2218.57 0.042 2   8.34
 3437.7292  214.6143 -13.023 18068.01 0.026 2  16.91
  619.1714  217.5687  -9.462   706.19 0.044 2   6.84
 1953.3059  220.0824 -12.544 12717.29 0.042 2  15.06
 3268.1658  223.7238  -9.382   766.30 0.050 2   7.17
 1934.8937  225.7045 -11.130  3468.47 0.042 2   9.39
 2753.1741  225.9496 -10.436  2197.15 0.066 2   7.50
 3154.2559  225.5824 -12.172  8838.14 0.036 2  12.74
 2180.4280  226.9265 -10.765  2394.87 0.051 2   8.67
 2659.2544  227.5444 -12.088  7850.31 0.071 2  11.54
  541.5456  229.7961 -11.544  4643.38 0.037 2   8.89
 1685.2300  230.5113 -11.026  2746.71 0.044 2   9.08
  874.7570  233.2431 -10.668  2258.46 0.033 2   6.08
 1441.0067  234.1542  -9.813  1055.80 0.053 2   8.94
  339.5349  235.6325 -12.327  9091.46 0.040 2  11.34
 3033.7954  237.3428 -11.418  4560.92 0.059 2  10.88
 3647.7566  237.4817 -11.858  5926.56 0.039 2   9.69
   48.8210  237.6508  -9.329   666.20 0.108 2   8.65
 3045.8909  239.9381 -10.696  2730.41 0.047 2   8.08
  972.8565  240.5524 -10.948  2657.75 0.028 2   8.26
  444.4052  242.3618 -14.112 46620.75 0.038 2  29.63
  452.7398  242.4139 -11.531  4714.78 0.025 2  26.39
 2026.5514  244.4991 -12.422  9103.12 0.035 2  12.46
 3931.9426  246.7642 -10.624  2280.38 0.043 2   7.27
  540.0801  249.8111 -10.403  1972.78 0.056 2   9.91
 1094.1699  251.1803 -10.944  2981.28 0.032 2  10.47
 3793.9016  251.1243 -11.248  4148.08 0.046 2  11.36
 2286.6155  252.7751 -10.617  2067.76 0.045 2  11.77
 4018.5215  253.9806 -10.961  2743.29 0.046 2   9.70
 1805.4703  258.0557 -10.477  1754.80 0.046 2   8.71
 2137.7505  261.4479 -10.968  2661.21 0.063 2   9.64
  690.1195  263.3158 -10.387  1710.71 0.042 2   7.76
 3813.2383  267.2091 -11.257  3821.13 0.036 2  10.36
  810.6745  268.3794  -9.836   996.16 0.043 2   7.49
 2848.9084  267.8593 -10.260  1885.56 0.055 2   7.96
 1937.0658  269.1226  -9.551   916.08 0.071 2   8.38
  471.4796  270.6734 -12.074  7478.96 0.031 2  12.29
 1019.9250  271.4046 -11.918  6807.53 0.027 2   8.27
 1785.3276  271.6195 -12.141  7773.25 0.047 2  13.91
 2333.4773  271.7647 -10.324  1503.74 0.056 2   7.28
 1480.7229  273.2029 -10.586  2064.48 0.040 2   9.98
 1580.0133  272.8929 -12.829 17317.58 0.038 2 114.91
 2476.8171  272.7358 -12.785 17351.74 0.037 2  14.06
 2924.1499  276.0785 -12.459 13590.89 0.046 2  13.41
 1383.9515  276.5190 -10.978  2634.17 0.033 2   8.89
 3854.5161  276.4945 -10.701  1798.81 0.027 2   7.88
 1188.2122  278.0000 -10.771  2612.37 0.034 2   8.61
  206.5095  280.6769 -10.314  1527.58 0.073 2   9.35
  373.5594  281.0352  -9.248   615.36 0.096 2   9.12
  328.4170  284.7004 -10.690  2177.22 0.039 2   6.65
 3430.3311  288.3789  -9.595   754.19 0.036 2   4.88
  755.6113  291.1309 -13.056 20003.39 0.023 2  15.26
 3359.5068  290.7492 -11.142  3203.66 0.039 2   5.90
 1008.8026  291.7733  -9.618   886.99 0.036 2   8.10
 1201.9778  292.4451  -9.834   955.41 0.049 2  14.11
 1651.5664  297.4465  -9.631   709.02 0.065 2  20.93
  185.9721  298.4890 -11.545  4788.40 0.056 2   9.68
  903.3801  297.7039 -11.303  3974.63 0.033 2   9.00
  292.7114  299.7078 -11.163  3526.64 0.044 2  10.50
  106.7723  300.6081  -9.247   577.09 0.104 2   9.71
 1573.6100  301.3229 -18.017 86800.97 0.000 2 665.24
 2240.9482  300.7060 -12.541 13271.68 0.051 2  14.21
 2941.8875  305.2569 -11.975  8263.74 0.054 2   9.72
 2389.1978  305.4691 -12.898 16158.81 0.046 2  16.76
  511.4984  307.0452 -11.048  3069.26 0.038 2   8.64
 2255.8271  306.5997 -10.918  2760.56 0.038 2  11.97
   20.7583  308.0038 -11.475  5261.33 0.062 2   9.13
 1883.4222  310.4343 -11.838  5132.03 0.042 2  11.59
 2026.4575  311.5995 -11.289  3437.89 0.042 2   7.91
 1998.6675  313.4865 -11.936  6187.86 0.043 2  11.57
 1190.6290  314.1271 -11.658  5416.07 0.024 2  15.08
  252.8622  315.3635 -12.644 14174.40 0.045 2  17.29
 2901.2639  314.5242 -11.954  6904.16 0.045 2  11.77
  674.7900  316.3095 -10.833  2639.51 0.026 2   6.17
