#
#--------------------------------------------
# ARGUMENTS
#--------------------------------------------
#  ARG0000: ./../hst1pass.e
#  ARG0001: HMIN=5
#  ARG0002: FMIN=1000.0
#  ARG0003: PMAX=66000.0
#  ARG0004: PERT=1
#  ARG0005: OUT=xympqks
#  ARG0006: PSF=./../psfs/STDPSF_WFC3UV_F606W.fits
#  ARG0007: id8048dyq_flc.fits
#
#=================================
# WFC3/UVIS POSTFLASH INFO
#
# FLSHCORR: 'COMPLETE'
# FLASHDUR:                  3.1               3.10
# FLASHLVL:                    8               8.00
# FLASHLVL:                    8               8.00
# FLASHCUR: 'LOW    '                           L
# SHUTRPOS: 'A    '                             A
# DARKTIME:           113.699296             113.70
# DARKEST :                                    1.06 2018.50
#
#
#================================
# BASIC STAR-FINDING PARAMETERS
#
# FILENAME: id8048dyq_flc.fits
#   NAXIS1:  4096
#   NAXIS2:  4096
#
#   CRPIX1:    2048.0000000000000000000000
#   CRPIX2:    1026.0000000000000000000000
#   CRVAL1:     201.5364272924400097508624
#   CRVAL2:     -47.6336630203250024351291
#    CD1_1:      -0.0000062738011073863172
#    CD1_2:      -0.0000090938958797745577
#    CD2_1:      -0.0000090938958797745577
#    CD2_2:       0.0000062738011073863172
#
#     HMIN:          5
#     PMAX:      66000.0
#     FMIN:       1000.0      1000.0
#   PIXFIT: 5x5
# HISTMODE:          7.3
# HIFLAG  :      64000
# HIFLAG_I:      64000
# LOFLAG_I:        -50
# DOAPPHOT:          F
#      PID:      14662
#     FILT:      F606W
#    EXPTI:        104.0000
#    EXPTE:        104.0000
#     rDAT:       2018.49721527
#  TIMESTR:      '11:37:29'
#  DATESTR:      '2018-06-30'
# APERTURE:      'UVIS-CENTER     '
#     GAIN:          0.00
#
#  PSF_INP: ./../psfs/STDPSF_WFC3UV_F606W.fits
#  PSF_USE: id8048dyq_psf.fits
#   NPERTs:    1
#
#  GDC_INP: NONE
#
#
#================================
# PSF INFO
#
# PSFFILE_USE: id8048dyq_psf.fits
#
#      CENTRAL PIXEL ARRAY
#                           0000    0682    1365    2048    2731    3413    4096
#                             01      02      03      04      05      06      07
#               4096 08   0.1227  0.1346  0.1414  0.1431  0.1455  0.1470  0.1463
#               3413 07   0.1311  0.1377  0.1407  0.1426  0.1447  0.1449  0.1461
#               2731 06   0.1374  0.1416  0.1415  0.1414  0.1452  0.1448  0.1436
#               2049 05   0.1387  0.1440  0.1430  0.1406  0.1466  0.1464  0.1431
#               2048 04   0.1368  0.1471  0.1487  0.1414  0.1478  0.1527  0.1512
#               1365 03   0.1399  0.1435  0.1416  0.1416  0.1521  0.1526  0.1502
#               0682 02   0.1389  0.1391  0.1361  0.1454  0.1669  0.1518  0.1424
#               0000 01   0.1329  0.1374  0.1362  0.1554  0.1791  0.1504  0.1356
#
# CENTRAL PERT PSF:
#      01  -0.0477
#
# CENTRAL PSFFILE_INP: ./../psfs/STDPSF_WFC3UV_F606W.fits
#                 0000    0682    1365    2048    2731    3413    4096
#                   01      02      03      04      05      06      07
#     4096 08   0.1704  0.1823  0.1891  0.1908  0.1932  0.1946  0.1940
#     3413 07   0.1788  0.1854  0.1883  0.1903  0.1924  0.1926  0.1938
#     2731 06   0.1851  0.1893  0.1892  0.1891  0.1929  0.1924  0.1913
#     2049 05   0.1864  0.1917  0.1907  0.1883  0.1942  0.1940  0.1907
#     2048 04   0.1845  0.1948  0.1963  0.1891  0.1955  0.2004  0.1989
#     1365 03   0.1876  0.1912  0.1892  0.1892  0.1998  0.2003  0.1979
#     0682 02   0.1866  0.1868  0.1838  0.1931  0.2145  0.1995  0.1900
#     0000 01   0.1806  0.1851  0.1839  0.2031  0.2268  0.1980  0.1833
#
# CENTRAL  DIFFERENCE
#                 0000    0682    1365    2048    2731    3413    4096
#                   01      02      03      04      05      06      07
#     4096 08   0.0477  0.0477  0.0477  0.0477  0.0477  0.0477  0.0477
#     3413 07   0.0477  0.0477  0.0477  0.0477  0.0477  0.0477  0.0477
#     2731 06   0.0477  0.0477  0.0477  0.0477  0.0477  0.0477  0.0477
#     2049 05   0.0477  0.0477  0.0477  0.0477  0.0477  0.0477  0.0477
#     2048 04   0.0477  0.0477  0.0477  0.0477  0.0477  0.0477  0.0477
#     1365 03   0.0477  0.0477  0.0477  0.0477  0.0477  0.0477  0.0477
#     0682 02   0.0477  0.0477  0.0477  0.0477  0.0477  0.0477  0.0477
#     0000 01   0.0477  0.0477  0.0477  0.0477  0.0477  0.0477  0.0477
#
#
#=================================
# FRAME INFO
#
#      WCSMODE: AUTO
#     TARGNAME: NGC-5139-HSSB
#     RA_TARG :   2.013959166667E+02
#     DEC_TARG:  -4.756673611111E+01
#        INSTu:     8
#     PLATESCL:   40.000 mas/pix
#
#        INST1:       2048.00     -0.00000627 -0.00000909       201.5364273  13:26:08.74
#            2:       1026.00     -0.00000909  0.00000627       -47.6336630 -47:38:01.18       39.773
#        -----     ----------     ----------- -----------      ------------ ------------     ---------
#        FRAME         CRPIX         CD_1        CD_2           RADEC(DEG)  RADEC(SEXIG)     (mas/pix)
#        -----     ----------     ----------- -----------      ------------ ------------     ---------
#        DEST1:          0.00     -0.00001111  0.00000000       201.3959167  13:25:35.02       40.000
#            2:          0.00      0.00000000  0.00001111       -47.5667361 -47:34:00.25
#
#
#=======================================
# FINDING STATISTICS
#
#  WHY    NPIX      %PIX   EXPLANATION
#  --- --------  -------   -------------
#   1    32688    0.195%   ..1..not on chip....
#   2 14898577   88.802%   ..2..not loc max....
#   3  1550369    9.241%   ..3..h < hmax.......
#   4   206222    1.229%   ..4..flux too low...
#   5        0    0.000%   ..5..below mask thr.
#   6        0    0.000%   ..6..out of bounds..
#   7       14    0.000%   ..7..loflag issues..
#   8        0    0.000%   ..8..saturated......
#   9       16    0.000%   ..9..not contig sat.
#  10        0    0.000%   .10..not loc sat max
#  11        0    0.000%   .11..sat weirdness..
#  12     5107    0.030%   .12..pk but not qsel
#  13        0    0.000%   .13..pk too peaky...
#  14        5    0.000%   .14..satd CR........
#  15     2345    0.014%   .15..good unsat.....
#  16       53    0.000%   .16..good satd......
#
#
#=======================================
# LUMINOSITY FUNCTION EXTRACTED
#
#    MAG   LFe    CUMe      LFe/s CUMe/s
#-------- -----  ------   ------- ------
# LF -18      2      2          0      0
# LF -17      5      7          0      0
# LF -16     20     27          0      0
# LF -15     15     42          0      0
# LF -14     48     90          0      0
# LF -13    169    259          1      1
# LF -12    442    701          6      7
# LF -11    623   1324         20     27
# LF -10    760   2084         13     40
# LF  -9    314   2398         47     87
# LF  -8      0   2398        158    245
# LF  -7      0   2398        434    679
# LF  -6      0   2398        612   1291
# LF  -5      0   2398        757   2048
# LF  -4      0   2398        350   2398
# LF  -3      0   2398          0   2398
# LF  -2      0   2398          0   2398
# LF  -1      0   2398          0   2398
#-------- -----  ------   ------- ------
#
#
#=====================================
# BOUNDARY INFO   INST=8 Ks=2
#
# -----------     ------------- -------------     ------------- -------------     ------------- -------------     ------------- -------------
#     SYS CHP         P1a           P1b               P2a           P2b               P3a           P3b               P4a           P4b
# -----------     ------------- -------------     ------------- -------------     ------------- -------------     ------------- -------------
# BDRY_xy_K1:         1.0000000  2052.0000000      4095.0000000  2052.0000000      4095.0000000  4095.0000000         1.0000000  4095.0000000
# BDRY_uv_K1:         1.0000000  2052.0000000      4095.0000000  2052.0000000      4095.0000000  4095.0000000         1.0000000  4095.0000000
# BDRY_rd_K1:       201.5416367   -47.6086108       201.5035159   -47.6458366       201.4759539   -47.6330080       201.5140850   -47.5957914
# BDRY_UV_K1:         1.0000000  2052.0000000      4095.0000000  2052.0000000      4095.0000000  4095.0000000         1.0000000  4095.0000000
# -----------     ------------- -------------     ------------- -------------     ------------- -------------     ------------- -------------
# BDRY_xy_K2:         1.0000000     1.0000000      4095.0000000     1.0000000      4095.0000000  2045.0000000         1.0000000  2045.0000000
# BDRY_uv_K2:         1.0000000     1.0000000      4095.0000000     1.0000000      4095.0000000  2045.0000000         1.0000000  2045.0000000
# BDRY_rd_K2:       201.5693099   -47.6214738       201.5311994   -47.6587088       201.5036103   -47.6458805       201.5417311   -47.6086547
# BDRY_UV_K2:         1.0000000     1.0000000      4095.0000000     1.0000000      4095.0000000  2045.0000000         1.0000000  2045.0000000
# -----------     ------------- -------------     ------------- -------------     ------------- -------------     ------------- -------------
#
#
#===================================================
#  FILEOUT: id8048dyq_flc.xympqks                                                           
#---------------------------------------------------
# (01)  x -- raw detector x pos    c002-c010    F004
# (02)  y -- raw detector y pos    c012-c020    F005
# (03)  m -- instl mag             c022-c028    F006
# (04)  p -- peak pixel value      c030-c037    F018
# (05)  q -- quality of fit        c039-c043    F019
# (06)  k -- chip number           c045-c045    F023
# (07)  s -- sky value             c047-c052    F025
#---------------------------------------------------
#
#  (01)      (02)     (03)     (04)   (05)     (07)   
#
#....x.... ....y.... ...m... ....p... ..q.. k ...s..  
#
 1067.8075    6.5211 -11.120  3065.97 0.027 2   8.40
 1792.0000    7.0000 -12.165 73431.69 0.000 2  41.15
 3260.1648    7.6983  -9.345   713.62 0.098 2   6.63
  839.1743   10.9112 -11.392  4825.74 0.034 2   9.59
 2359.5049   11.7570 -10.082  1249.06 0.064 2   9.22
 2650.9023   13.4334 -10.132  1450.06 0.089 2   7.99
 1114.4979   21.7820  -9.396   684.39 0.068 2   9.17
 1442.3458   23.4154  -9.544   701.54 0.050 2   5.68
 1683.9125   22.9407 -12.567 13823.05 0.055 2  15.14
 3162.6309   23.4531  -9.784   909.93 0.078 2   6.22
 3664.4138   22.7587  -9.328   630.19 0.089 2   6.47
 3718.6541   22.6459  -9.110   466.62 0.069 2   8.11
 2993.7886   30.2822 -14.142 58912.38 0.082 2  28.57
 3932.6174   29.6719  -9.354   596.45 0.067 2   6.63
 1286.7318   32.5184 -13.268 21134.07 0.025 2  16.40
  929.7750   33.3364 -12.665 14191.36 0.023 2  16.39
  283.2610   34.3475 -15.719 81631.52 0.000 2  91.85
 1930.7445   35.2943 -13.590 32926.30 0.059 2  17.37
 2659.9521   37.1936  -9.669  1113.06 0.095 2  10.09
 2558.8406   38.1591 -10.536  2423.97 0.076 2   7.30
 2970.6057   40.6908 -12.007  7224.42 0.076 2  14.01
 2045.5344   42.1026 -11.121  3211.62 0.068 2   9.01
 3484.7568   42.5182  -9.588   759.31 0.071 2   6.64
  803.3416   45.0407 -10.597  2198.10 0.052 2   8.25
    9.5816   49.7326  -9.170   544.57 0.103 2   8.77
  299.6803   50.2827  -9.933  1105.55 0.076 2  28.33
 3167.0493   50.1544  -9.371   786.29 0.101 2  10.26
 2520.5583   55.7285  -9.553   733.06 0.090 2   7.68
 4084.3809   56.2040 -12.116  8105.03 0.049 2  10.14
 3069.5076   57.5872 -11.223  3238.44 0.076 2   8.49
  559.0107   60.8442 -11.202  4244.49 0.032 2   8.21
 1241.7439   60.5701 -14.294 55280.03 0.024 2  29.08
 2746.3770   62.7185 -11.548  5237.85 0.098 2  10.10
 2048.2078   64.3127 -10.552  2103.34 0.057 2   8.14
  911.0856   64.5218 -13.009 18216.32 0.027 2  13.52
 2226.2483   66.6400 -11.013  3136.67 0.080 2   8.75
 2278.8196   68.4253  -9.066   529.79 0.096 2   8.13
 2352.3013   67.8959 -11.847  7525.43 0.058 2  12.71
 1693.3359   69.2268 -12.229  8732.70 0.054 2  14.01
  731.9330   73.6137 -12.530 12454.20 0.033 2  15.09
 3857.4780   75.0849 -10.030  1099.73 0.082 2   8.07
 2401.2654   76.5415 -12.263  9664.07 0.057 2  19.47
 3182.5984   76.8092  -9.694   885.43 0.070 2   9.06
 1935.3882   78.7972 -12.513 12274.81 0.044 2  14.73
  189.6957   79.7831 -10.044  1286.03 0.050 2   6.69
  742.2222   80.3242 -10.653  2243.11 0.043 2  11.66
 2487.3540   81.0318 -11.637  6056.53 0.066 2  13.31
 3505.4492   81.3437 -10.326  1383.07 0.062 2   7.21
 4019.5957   81.9271 -10.557  1882.22 0.054 2   6.18
 3800.6499   83.6324 -10.815  2242.11 0.062 2  10.37
  871.1400   85.5986 -11.903  6891.13 0.033 2  10.34
 3430.0198   85.7979  -9.497   887.37 0.087 2   8.91
 2670.8262   88.6180 -11.617  5560.97 0.082 2   9.62
 2943.6748   88.6558 -10.273  1534.22 0.073 2   8.94
 1688.8781   89.8657  -9.992  1321.42 0.064 2   7.17
  670.8488   90.6366 -10.413  1778.65 0.049 2   8.75
 3061.4167   91.0083 -11.622  5590.30 0.071 2  10.00
  619.8751   98.3048 -10.149  1465.71 0.043 2   6.67
 3907.4324   98.6193 -10.892  2439.37 0.035 2   9.97
 2426.8169  101.7339 -15.733 76731.82 0.000 2  94.75
 3233.2380  102.2269 -14.858 75947.09 0.000 2  50.68
 2152.8879  105.6312 -11.325  3971.63 0.097 2   9.82
  682.3413  109.3972  -9.440   643.55 0.060 2   6.59
 1194.1151  109.9628  -9.710   985.25 0.074 2   8.75
  415.9431  113.0623 -11.235  4489.67 0.034 2   6.42
   68.5283  113.9474 -10.635  2152.33 0.058 2   7.00
 3396.7351  116.5142  -9.709   817.92 0.084 2   7.67
 3797.3552  116.9765 -10.499  1952.44 0.056 2   9.11
 2954.3394  118.2348  -9.362   683.40 0.101 2   7.11
 3108.5310  119.4540  -9.637   772.00 0.077 2   7.80
  572.3209  122.5854 -11.818  6161.10 0.033 2  10.86
 1350.5374  125.2268  -9.607   797.49 0.043 2  12.38
 2143.9548  126.7712  -9.513   839.52 0.086 2   8.75
 2206.8853  129.9330  -9.519   942.70 0.077 2   5.89
  902.6615  132.4417 -10.422  1659.48 0.037 2   6.29
 1212.1024  131.6538  -9.904  1122.57 0.043 2   8.23
 1349.3988  133.5822 -11.581  4613.73 0.037 2   9.91
  228.7346  135.8976 -10.256  1652.68 0.057 2   8.08
 1187.3088  135.9943 -13.123 21676.56 0.031 2  15.37
 1948.1056  140.2881 -10.447  1864.47 0.064 2   9.02
 1912.0338  140.7112  -9.406   759.47 0.086 2   8.36
 1551.2122  144.3999  -9.972  1048.75 0.065 2   6.94
 3884.1687  145.6343 -12.610 13411.09 0.044 2  15.47
 1310.6208  147.0934 -12.606 13022.71 0.037 2  15.64
 3751.9915  149.0889  -9.805  1019.47 0.141 2  25.14
  655.3980  152.0036  -9.454   768.12 0.057 2   9.15
  363.1161  153.4320 -11.088  3179.18 0.052 2   7.38
 3742.6990  154.6557 -14.302 57739.27 0.053 2  27.17
 3266.3333  156.2618 -10.719  2304.16 0.062 2  10.07
 3708.9880  156.6456 -12.449 11875.58 0.053 2  16.00
  135.3687  163.3233  -9.271   590.10 0.093 2   8.15
 1425.6746  163.6937 -10.762  2245.29 0.041 2   8.18
 3851.8657  163.9637 -10.722  2610.95 0.064 2  10.71
 1504.2113  165.9324 -10.848  2731.86 0.066 2   9.38
 2626.2380  169.1403 -10.282  1853.81 0.079 2   6.39
 2675.8894  169.0611 -10.634  2652.17 0.079 2   9.75
 3881.7839  171.0711 -10.655  2386.64 0.058 2  12.43
 3938.3423  170.6030 -10.846  2473.33 0.059 2   9.33
 1095.0858  172.2416  -9.707   995.28 0.050 2   7.00
 3246.7622  172.1510 -10.005  1373.78 0.085 2   8.35
 3240.9907  173.1114  -9.686   991.28 0.140 2   7.72
 1628.1681  173.6068  -9.670   899.86 0.063 2   8.43
 1217.3167  175.4140  -9.989  1005.98 0.057 2   9.72
 2699.2544  174.6684 -10.764  2644.73 0.084 2  10.21
 3182.6765  175.4949  -9.967  1080.15 0.085 2   8.31
 3900.8311  177.5668 -11.510  4458.41 0.048 2  12.28
 1084.9044  183.4716  -9.236   607.08 0.064 2   6.16
 2358.8950  183.3935 -10.753  2561.22 0.065 2   7.94
  828.3407  184.8362  -9.750   934.40 0.060 2   7.33
  589.2551  188.0097 -10.777  2729.09 0.042 2   8.61
  899.2825  188.2882 -11.255  3754.96 0.031 2   9.79
  125.7579  191.1982 -11.548  5531.39 0.047 2   8.11
 2630.0801  191.1320  -9.627  1091.67 0.084 2   7.52
 1191.0620  192.3313 -11.475  4719.67 0.032 2   9.70
  324.5115  193.5321 -11.613  4605.56 0.039 2  11.09
  753.6115  195.1657  -9.114   552.53 0.083 2   8.26
 3603.0232  204.7519 -10.120  1537.95 0.045 2   8.24
 2275.4822  205.8062 -13.604 27512.92 0.194 2  20.15
  826.7451  208.7744 -10.660  2218.57 0.036 2   8.35
 3437.7402  214.6220 -13.015 18068.01 0.057 2  17.07
  619.1627  217.5730  -9.454   706.19 0.048 2   6.85
 1953.3003  220.0890 -12.537 12717.29 0.054 2  15.05
 3268.1655  223.7289  -9.370   766.30 0.063 2   7.27
 1934.8931  225.7081 -11.122  3468.47 0.060 2   9.40
 2753.1719  225.9554 -10.427  2197.15 0.087 2   7.44
 3154.2566  225.5876 -12.163  8838.14 0.063 2  12.77
 2180.4243  226.9303 -10.758  2394.87 0.067 2   8.62
 2659.2527  227.5480 -12.080  7850.31 0.088 2  11.54
  541.5319  229.7992 -11.538  4643.38 0.030 2   9.05
 1685.2266  230.5158 -11.019  2746.71 0.060 2   9.08
  874.7527  233.2537 -10.661  2258.46 0.036 2   6.09
 1441.0006  234.1619  -9.805  1055.80 0.055 2   8.95
  339.5216  235.6348 -12.321  9091.46 0.034 2  11.47
 3033.7957  237.3506 -11.409  4560.92 0.081 2  10.91
 3647.7632  237.4853 -11.847  5926.56 0.065 2   9.70
   48.8119  237.6589  -9.322   666.20 0.097 2   8.67
 3045.8909  239.9434 -10.687  2730.41 0.068 2   8.10
  972.8528  240.5599 -10.942  2657.75 0.033 2   8.26
  444.3915  242.3671 -14.106 46620.75 0.030 2  29.63
  452.7344  242.4242 -11.524  4714.78 0.039 2  26.23
 2026.5536  244.5092 -12.414  9103.12 0.050 2  12.47
 3931.9512  246.7696 -10.614  2280.38 0.058 2   7.29
  540.0707  249.8153 -10.397  1972.78 0.038 2   9.91
 1094.1614  251.1905 -10.937  2981.28 0.046 2  10.61
 3793.9087  251.1278 -11.238  4148.08 0.062 2  11.30
 2286.6196  252.7808 -10.609  2067.76 0.063 2  11.80
 4018.5386  253.9842 -10.948  2743.29 0.045 2   9.71
 1805.4620  258.0609 -10.470  1754.80 0.048 2   8.57
 2137.7495  261.4580 -10.960  2661.21 0.079 2   9.64
  690.1123  263.3231 -10.380  1710.71 0.047 2   7.76
 3813.2434  267.2082 -11.249  3821.13 0.056 2  10.33
  810.6705  268.3876  -9.828   996.16 0.038 2   7.49
 2848.9092  267.8637 -10.251  1885.56 0.072 2   7.97
 1937.0619  269.1304  -9.542   916.08 0.080 2   8.38
  471.4679  270.6762 -12.069  7478.96 0.028 2  12.43
 1019.9185  271.4146 -11.911  6807.53 0.034 2   8.29
 1785.3235  271.6227 -12.134  7773.25 0.063 2  13.92
 2333.4741  271.7681 -10.316  1503.74 0.077 2   7.24
 1480.7209  273.2125 -10.578  2064.48 0.051 2   9.99
 1580.0093  272.8976 -12.821 17317.58 0.051 2 119.40
 2476.8188  272.7405 -12.778 17351.74 0.059 2  14.08
 2924.1467  276.0854 -12.452 13590.89 0.071 2  13.42
 1383.9489  276.5255 -10.970  2634.17 0.044 2   9.54
 3854.5203  276.5040 -10.690  1798.81 0.045 2   7.89
 1188.2030  278.0059 -10.765  2612.37 0.046 2   8.61
  206.4958  280.6822 -10.309  1527.58 0.068 2   9.36
  373.5561  281.0403  -9.242   615.36 0.082 2   9.10
  328.4052  284.7025 -10.684  2177.22 0.047 2   6.66
 3430.3274  288.3825  -9.584   754.19 0.068 2   4.87
  755.6099  291.1403 -13.051 20003.39 0.025 2  15.43
 3359.5068  290.7532 -11.133  3203.66 0.074 2   5.91
 1008.7993  291.7775  -9.611   886.99 0.043 2   8.11
 1201.9705  292.4543  -9.826   955.41 0.058 2  14.10
 1651.5676  297.4546  -9.621   709.02 0.078 2  20.91
  185.9614  298.4964 -11.539  4788.40 0.056 2   9.68
  903.3717  297.7070 -11.297  3974.63 0.031 2   9.00
  292.7058  299.7132 -11.158  3526.64 0.040 2  10.52
  106.7667  300.6095  -9.241   577.09 0.103 2   9.71
 1573.6160  301.3188 -18.017 86800.97 0.000 2 665.24
 2240.9480  300.7093 -12.534 13271.68 0.064 2  14.49
 2941.8887  305.2646 -11.967  8263.74 0.075 2   9.72
 2389.1968  305.4748 -12.891 16158.81 0.057 2  16.81
  511.4837  307.0495 -11.043  3069.26 0.038 2   8.64
 2255.8291  306.6037 -10.911  2760.56 0.054 2  11.83
   20.7500  308.0122 -11.471  5261.33 0.048 2   9.13
 1883.4189  310.4400 -11.831  5132.03 0.057 2  11.61
 2026.4547  311.6013 -11.281  3437.89 0.064 2   8.09
 1998.6675  313.4967 -11.928  6187.86 0.058 2  12.28
 1190.6274  314.1358 -11.652  5416.07 0.037 2  15.06
  252.8524  315.3736 -12.638 14174.40 0.040 2  17.30
 2901.2637  314.5299 -11.946  6904.16 0.071 2  11.57
  674.7839  316.3204 -10.826  2639.51 0.039 2   6.19
 3847.1895  317.1832 -10.456  1916.78 0.064 2   8.10
